Tiempo(s)	Voltaje(V)
0.000061	1.97597
0.000647	2.24270
0.001178	2.23062
0.001703	1.97114
0.002228	1.55450
0.002786	1.18379
0.003311	1.01294
0.003836	1.10081
0.004362	1.42877
0.004903	1.84298
0.005429	2.16616
0.005954	2.26848
0.006479	2.11057
0.007004	1.75033
0.007530	1.33531
0.008056	1.06374
0.008581	1.02583
0.009127	1.25555
0.009655	1.64554
0.010180	2.03237
0.010705	2.25559
0.011230	2.21934
0.011756	1.93649
0.012281	1.53194
0.012807	1.16929
0.013331	1.00649
0.013857	1.10886
0.014383	1.43199
0.014909	1.84137
0.015435	2.16858
0.015959	2.26934
0.016484	2.10976
0.017010	1.73744
0.017558	1.32564
0.018084	1.05327
0.018609	1.02986
0.019134	1.26038
0.019659	1.65204
0.020184	2.03237
0.020709	2.25720
0.021235	2.21692
0.021761	1.93247
0.022287	1.52469
0.022812	1.16929
0.023337	1.01213
0.023862	1.11531
0.024387	1.43441
0.024912	1.84782
0.025437	2.17019
0.025962	2.27014
0.026488	2.10654
0.027013	1.74066
0.027539	1.33772
0.028065	1.05810
0.028590	1.02663
0.029115	1.24910
0.029641	1.63507
0.030166	2.02592
0.030691	2.25076
0.031216	2.22014
0.031741	1.94294
0.032267	1.54322
0.032792	1.17976
0.033317	1.00891
0.033842	1.11209
0.034417	1.46104
0.034941	1.86962
0.035467	2.18469
0.035993	2.26934
0.036517	2.08801
0.037042	1.71730
0.037568	1.32242
0.038094	1.05488
0.038620	1.02986
0.039145	1.27005
0.039670	1.66010
0.040196	2.04365
0.040720	2.25720
0.041245	2.21209
0.041771	1.92602
0.042297	1.51986
0.042823	1.16123
0.043348	1.00569
0.043874	1.11772
0.044399	1.44574
0.044924	1.86076
0.045449	2.17502
0.045975	2.26848
0.046499	2.10090
0.047024	1.73100
0.047550	1.33611
0.048076	1.05810
0.048601	1.02986
0.049126	1.25474
0.049651	1.64635
0.050177	2.02753
0.050702	2.25559
0.051227	2.21772
0.051754	1.93569
0.052278	1.53436
0.052804	1.17493
0.053328	1.00891
0.053853	1.11047
0.054379	1.43199
0.054903	1.84137
0.055429	2.16697
0.055955	2.27095
0.056480	2.11299
0.057005	1.74953
0.057531	1.34498
0.058056	1.06213
0.058583	1.02260
0.059108	1.24668
0.059634	1.63185
0.060159	2.01787
0.060684	2.25076
0.061210	2.22417
0.061735	1.94858
0.062260	1.54725
0.062785	1.18298
0.063310	1.01052
0.063835	1.10242
0.064360	1.40218
0.064885	1.82687
0.065410	2.15972
0.065935	2.27176
0.066461	2.11863
0.066985	1.76645
0.067510	1.33531
0.068128	1.04280
0.068654	1.04038
0.069180	1.29019
0.069705	1.68749
0.070230	2.06787
0.070755	2.26284
0.071280	2.20483
0.071805	1.90346
0.072331	1.48683
0.072856	1.14673
0.073382	1.00730
0.073908	1.13303
0.074433	1.47152
0.074958	1.87768
0.075484	2.18711
0.076010	2.26526
0.076534	2.07915
0.077059	1.70844
0.077584	1.30630
0.078109	1.04763
0.078634	1.03313
0.079159	1.27730
0.079684	1.67299
0.080209	2.04929
0.080734	2.25317
0.081259	2.20645
0.081784	1.91796
0.082309	1.51261
0.082834	1.15720
0.083360	1.00810
0.083885	1.12175
0.084410	1.45782
0.084935	1.86559
0.085461	2.18147
0.085986	2.26848
0.086512	2.09285
0.087037	1.72374
0.087563	1.32081
0.088088	1.05569
0.088614	1.03232
0.089139	1.26199
0.089665	1.65446
0.090189	2.03720
0.090714	2.25962
0.091239	2.21531
0.091764	1.92763
0.092289	1.52389
0.092814	1.16848
0.093340	1.00891
0.093865	1.11128
0.094390	1.44005
0.094915	1.85024
0.095440	2.17502
0.095965	2.26934
0.096490	2.10574
0.097015	1.74228
0.097541	1.33692
0.098065	1.05408
0.098590	1.02502
0.099115	1.25071
0.099640	1.63426
0.100165	2.02512
0.100691	2.25237
0.101216	2.22256
0.101742	1.94455
0.102267	1.54483
0.102792	1.17896
0.103317	1.01052
0.103843	1.10403
0.104368	1.42393
0.104893	1.83171
0.105418	2.17261
0.105943	2.27014
0.106468	2.11540
0.106993	1.76161
0.107519	1.35464
0.108045	1.06536
0.108572	1.02019
0.109097	1.23863
0.109625	1.62782
0.110150	2.01062
0.110676	2.24592
0.111201	2.22417
0.111726	1.95744
0.112251	1.55853
0.112776	1.18943
0.113301	1.00891
0.113826	1.09758
0.114351	1.41185
0.114876	1.82526
0.115402	2.15408
0.115927	2.26848
0.116452	2.11379
0.116977	1.77047
0.117502	1.36270
0.118028	1.07341
0.118552	1.02019
0.119078	1.22649
0.119604	1.60687
0.120129	2.00256
0.120654	2.24431
0.121179	2.23062
0.121704	1.97275
0.122230	1.57464
0.122755	1.19910
0.123281	1.01374
0.123807	1.09114
0.124332	1.39412
0.124857	1.80834
0.125382	2.14521
0.125907	2.27498
0.126433	2.13152
0.126957	1.78739
0.127482	1.38123
0.128007	1.07986
0.128532	1.01616
0.129057	1.21118
0.129582	1.58753
0.130107	1.98886
0.130633	2.23948
0.131157	2.23867
0.131682	1.98725
0.132207	1.58834
0.132732	1.21521
0.133257	1.01455
0.133783	1.08066
0.134308	1.38123
0.134833	1.84701
0.135525	2.20322
0.136051	2.25962
0.136576	2.05251
0.137101	1.67057
0.137626	1.28052
0.138151	1.03474
0.138676	1.04360
0.139201	1.30389
0.139726	1.70360
0.140251	2.07754
0.140776	2.26687
0.141301	2.19275
0.141826	1.88412
0.142351	1.47796
0.142876	1.13706
0.143401	1.00649
0.143926	1.14431
0.144451	1.48683
0.144976	1.89057
0.145501	2.19517
0.146026	2.26445
0.146551	2.07109
0.147076	1.69393
0.147601	1.29583
0.148126	1.04038
0.148651	1.03877
0.149176	1.28616
0.149701	1.68588
0.150227	2.06384
0.150752	2.26123
0.151278	2.20000
0.151804	1.90185
0.152328	1.49327
0.152853	1.14834
0.153378	1.00649
0.153904	1.13142
0.154428	1.46991
0.154954	1.87607
0.155479	2.18791
0.156004	2.26768
0.156529	2.08076
0.157054	1.71488
0.157579	1.30872
0.158105	1.04924
0.158630	1.03393
0.159155	1.27327
0.159680	1.66815
0.160205	2.04687
0.160731	2.26284
0.161257	2.20806
0.161782	1.91796
0.162308	1.51422
0.162833	1.14995
0.163358	1.00730
0.163883	1.11692
0.164408	1.45540
0.164933	1.86076
0.165458	2.17986
0.165983	2.26768
0.166508	2.09285
0.167033	1.72697
0.167558	1.32242
0.168084	1.05488
0.168609	1.03066
0.169134	1.26038
0.169659	1.65848
0.170184	2.03317
0.170709	2.25237
0.171234	2.21370
0.171759	1.93488
0.172284	1.53275
0.172809	1.17090
0.173335	1.01052
0.173860	1.10564
0.174385	1.43602
0.174910	1.84137
0.175435	2.17180
0.175960	2.27417
0.176485	2.10654
0.177010	1.74389
0.177535	1.34256
0.178060	1.06294
0.178586	1.02260
0.179112	1.24829
0.179637	1.63024
0.180163	2.01948
0.180689	2.24431
0.181215	2.22336
0.181741	1.94536
0.182265	1.54967
0.182790	1.18218
0.183315	1.01213
0.183840	1.10483
0.184365	1.42313
0.184891	1.83171
0.185416	2.16213
0.185941	2.26768
0.186467	2.11621
0.186992	1.76081
0.187517	1.35626
0.188042	1.06133
0.188567	1.02099
0.189092	1.23782
0.189617	1.61654
0.190142	2.00256
0.190667	2.24915
0.191192	2.22900
0.191717	1.96389
0.192242	1.56498
0.192767	1.19265
0.193292	1.01052
0.193818	1.09275
0.194343	1.40621
0.194868	1.81559
0.195393	2.15408
0.195919	2.27095
0.196444	2.12991
0.196970	1.78014
0.197495	1.36431
0.198020	1.07744
0.198545	1.01858
0.199070	1.21682
0.199595	1.59881
0.200120	1.99128
0.200645	2.23706
0.201171	2.22981
0.201696	1.97839
0.202221	1.58028
0.202746	1.20393
0.203271	1.01858
0.203796	1.08389
0.204321	1.38929
0.204846	1.79706
0.205372	2.13877
0.205897	2.27417
0.206422	2.13635
0.206947	1.79706
0.207473	1.38284
0.207998	1.08469
0.208523	1.01535
0.209049	1.20554
0.209573	1.58270
0.210098	1.97758
0.210623	2.24109
0.211148	2.23867
0.211673	1.99531
0.212199	1.59559
0.212724	1.21763
0.213249	1.01938
0.213774	1.07341
0.214299	1.37559
0.214824	1.78175
0.215349	2.13152
0.215874	2.27337
0.216399	2.15247
0.216925	1.81962
0.217450	1.40540
0.217975	1.09355
0.218501	1.01213
0.219026	1.19104
0.219551	1.56095
0.220076	1.97033
0.220602	2.23142
0.221128	2.24512
0.221652	2.00659
0.222177	1.61493
0.222703	1.22971
0.223228	1.02099
0.223753	1.07261
0.224279	1.36028
0.224805	1.76403
0.225330	2.11943
0.225855	2.26848
0.226380	2.16052
0.226905	1.82848
0.227431	1.41829
0.227955	1.10403
0.228480	1.00971
0.229006	1.18218
0.229530	1.54403
0.230055	1.94858
0.230580	2.23142
0.231106	2.25156
0.231631	2.02190
0.232156	1.62460
0.232682	1.24588
0.233208	1.02422
0.233734	1.06213
0.234259	1.34256
0.234784	1.74953
0.235309	2.10574
0.235835	2.27176
0.236361	2.16294
0.236886	1.84460
0.237411	1.43360
0.237937	1.10806
0.238462	1.01133
0.238987	1.17009
0.239513	1.53517
0.240039	1.93891
0.240564	2.21934
0.241090	2.25479
0.241615	2.03156
0.242141	1.64071
0.242665	1.25071
0.243191	1.02905
0.243716	1.05730
0.244241	1.32967
0.244766	1.73744
0.245291	2.10574
0.245817	2.26848
0.246344	2.17664
0.246869	1.85507
0.247394	1.44493
0.247919	1.11531
0.248444	1.00971
0.248969	1.16284
0.249494	1.51825
0.250019	1.92683
0.250544	2.21450
0.251070	2.26365
0.251594	2.04607
0.252120	1.65848
0.252646	1.26844
0.253171	1.03232
0.253696	1.05005
0.254221	1.31919
0.254746	1.71810
0.255271	2.08962
0.255796	2.26848
0.256322	2.18550
0.256848	1.87204
0.257373	1.45782
0.257898	1.12659
0.258424	1.00649
0.258949	1.15398
0.259474	1.50455
0.259999	1.90910
0.260524	2.20483
0.261049	2.26204
0.261574	2.05493
0.262100	1.67379
0.262624	1.27972
0.263149	1.03555
0.263675	1.03635
0.264199	1.29744
0.264724	1.70280
0.265249	2.07512
0.265774	2.25801
0.266300	2.18550
0.266825	1.88896
0.267350	1.47716
0.267875	1.13867
0.268401	1.00971
0.268927	1.14351
